# %ECSV 0.9
# ---
# datatype:
# - {name: wavelength, unit: nm, datatype: float64}
# - {name: response, datatype: float64}
# meta: !!omap
# - {url: 'http://www.ctio.noao.edu/noao/content/dark-energy-camera-decam'}
# - {band_name: u}
# - {airmass: 1.3}
# - {description: 'DECam u-band throughput from a spreadsheet created in 2014 by William
#     Wester.
# 
#     Throughputs include an airmass 1.3 reference atmosphere provided by Ting Li.'}
# - {group_name: decam2014}
wavelength response
333.0 0.0
334.0 0.00139
335.0 0.00275
336.0 0.00346
337.0 0.00395
338.0 0.00455
339.0 0.00468
340.0 0.00471
341.0 0.00566
342.0 0.00635
343.0 0.00723
344.0 0.00809
345.0 0.00904
346.0 0.00997
347.0 0.00978
348.0 0.01148
349.0 0.01179
350.0 0.01283
351.0 0.01389
352.0 0.01431
353.0 0.01606
354.0 0.01846
355.0 0.01908
356.0 0.02236
357.0 0.02272
358.0 0.02554
359.0 0.02754
360.0 0.02964
361.0 0.03094
362.0 0.03505
363.0 0.03718
364.0 0.03933
365.0 0.0415
366.0 0.04778
367.0 0.0483
368.0 0.05411
369.0 0.0549
370.0 0.05972
371.0 0.06152
372.0 0.06438
373.0 0.06741
374.0 0.07102
375.0 0.07466
376.0 0.07834
377.0 0.08188
378.0 0.08514
379.0 0.08844
380.0 0.09331
381.0 0.09493
382.0 0.0975
383.0 0.09989
384.0 0.10447
385.0 0.10755
386.0 0.11066
387.0 0.1143
388.0 0.11822
389.0 0.11963
390.0 0.12105
391.0 0.12479
392.0 0.12931
393.0 0.13032
394.0 0.13457
395.0 0.13817
396.0 0.14129
397.0 0.14048
398.0 0.12003
399.0 0.09108
400.0 0.0504
401.0 0.01881
402.0 0.00771
403.0 0.00309
404.0 0.00137
405.0 0.00126
406.0 0.00106
407.0 0.00037
408.0 0.00021
409.0 0.0002
410.0 0.00018
411.0 0.00013
412.0 0.0001
413.0 0.0001
414.0 9e-05
415.0 9e-05
416.0 8e-05
417.0 8e-05
418.0 7e-05
419.0 7e-05
420.0 8e-05
421.0 0.0001
422.0 6e-05
425.0 6e-05
426.0 7e-05
427.0 7e-05
428.0 6e-05
429.0 7e-05
430.0 7e-05
431.0 6e-05
432.0 6e-05
433.0 7e-05
439.0 7e-05
440.0 8e-05
445.0 8e-05
446.0 9e-05
447.0 9e-05
448.0 0.0001
450.0 0.0001
451.0 0.00011
455.0 0.00011
456.0 0.00012
457.0 0.00013
458.0 0.00013
459.0 0.00014
460.0 0.00015
461.0 0.00016
462.0 0.00016
463.0 0.00017
464.0 0.00017
465.0 0.00018
466.0 0.00019
467.0 0.00019
468.0 0.0002
469.0 0.00019
470.0 0.00019
471.0 0.00018
472.0 0.00017
473.0 0.00015
474.0 0.00013
475.0 0.0001
476.0 8e-05
477.0 7e-05
478.0 6e-05
479.0 5e-05
480.0 4e-05
481.0 3e-05
483.0 3e-05
484.0 2e-05
487.0 2e-05
488.0 1e-05
506.0 1e-05
507.0 2e-05
514.0 2e-05
515.0 3e-05
529.0 3e-05
530.0 4e-05
552.0 4e-05
553.0 5e-05
560.0 5e-05
561.0 4e-05
564.0 4e-05
565.0 3e-05
567.0 3e-05
568.0 2e-05
570.0 2e-05
571.0 1e-05
589.0 1e-05
590.0 0.0
720.0 0.0
721.0 1e-05
722.0 0.0
739.0 0.0
740.0 1e-05
743.0 1e-05
744.0 0.0
751.0 0.0
752.0 1e-05
759.0 1e-05
760.0 0.0
764.0 0.0
765.0 1e-05
791.0 1e-05
792.0 2e-05
841.0 2e-05
842.0 3e-05
846.0 3e-05
847.0 4e-05
850.0 4e-05
851.0 5e-05
852.0 5e-05
853.0 6e-05
855.0 6e-05
856.0 7e-05
857.0 7e-05
858.0 8e-05
859.0 8e-05
860.0 9e-05
861.0 9e-05
862.0 0.0001
863.0 0.0001
864.0 0.00011
865.0 0.00011
866.0 0.00012
867.0 0.00013
868.0 0.00013
869.0 0.00014
870.0 0.00014
871.0 0.00015
872.0 0.00015
873.0 0.00016
874.0 0.00016
875.0 0.00017
876.0 0.00018
877.0 0.00018
878.0 0.00019
879.0 0.00019
880.0 0.0002
881.0 0.00022
882.0 0.00023
883.0 0.00024
884.0 0.00025
885.0 0.00027
886.0 0.00028
887.0 0.00029
888.0 0.0003
890.0 0.0003
891.0 0.00029
892.0 0.00029
893.0 0.00028
894.0 0.00028
895.0 0.00027
896.0 0.00026
897.0 0.00025
898.0 0.00025
899.0 0.00024
902.0 0.00024
903.0 0.00025
904.0 0.00026
910.0 0.00026
911.0 0.00027
912.0 0.00027
913.0 0.00026
915.0 0.00026
916.0 0.00027
919.0 0.00027
920.0 0.00028
923.0 0.00028
924.0 0.00027
928.0 0.00027
929.0 0.00025
930.0 0.00024
931.0 0.00023
932.0 0.00021
933.0 0.00019
934.0 0.00017
937.0 0.00017
938.0 0.00018
939.0 0.00021
940.0 0.00021
941.0 0.0002
942.0 0.00019
943.0 0.00017
947.0 0.00017
948.0 0.00018
949.0 0.00017
950.0 0.00017
951.0 0.00018
952.0 0.00017
953.0 0.00018
956.0 0.00018
957.0 0.00019
962.0 0.00019
963.0 0.0002
967.0 0.0002
968.0 0.00021
974.0 0.00021
975.0 0.0002
976.0 0.00021
985.0 0.00021
986.0 0.00022
990.0 0.00022
991.0 0.00021
995.0 0.00021
996.0 0.0002
999.0 0.0002
1000.0 0.00019
1003.0 0.00019
1004.0 0.00018
1007.0 0.00018
1008.0 0.00017
1011.0 0.00017
1012.0 0.00016
1014.0 0.00016
1015.0 0.00015
1017.0 0.00015
1018.0 0.00014
1020.0 0.00014
1021.0 0.00013
1022.0 0.00013
1023.0 0.00012
1025.0 0.00012
1026.0 0.00011
1027.0 0.00011
1028.0 0.0001
1030.0 0.0001
1031.0 9e-05
1033.0 9e-05
1034.0 8e-05
1036.0 8e-05
1037.0 7e-05
1039.0 7e-05
1040.0 6e-05
1046.0 6e-05
1047.0 5e-05
1058.0 5e-05
1059.0 4e-05
1073.0 4e-05
1074.0 3e-05
1097.0 3e-05
1098.0 2e-05
1099.0 0.0
