# %ECSV 0.9
# ---
# datatype:
# - {name: wavelength, unit: nm, datatype: float64}
# - {name: response, datatype: float64}
# meta: !!omap
# - {url: 'http://www.ctio.noao.edu/noao/content/dark-energy-camera-decam'}
# - {band_name: z}
# - {airmass: 1.3}
# - {description: 'DECam z-band throughput from a spreadsheet created in 2014 by William
#     Wester.
# 
#     Throughputs include an airmass 1.3 reference atmosphere provided by Ting Li.'}
# - {group_name: decam2014}
wavelength response
333.0 0.0
334.0 0.00071
335.0 0.00078
336.0 0.00083
337.0 0.00086
338.0 0.00091
339.0 0.00097
340.0 0.001
341.0 0.00106
342.0 0.00111
343.0 0.00103
344.0 0.00094
345.0 0.00086
346.0 0.00078
347.0 0.00069
348.0 0.0006
349.0 0.00051
350.0 0.00042
351.0 0.00032
352.0 0.00023
353.0 0.00022
354.0 0.00021
355.0 0.0002
356.0 0.0002
357.0 0.00019
358.0 0.00018
359.0 0.00017
360.0 0.00017
361.0 0.00016
362.0 0.00017
363.0 0.00018
364.0 0.00019
365.0 0.0002
366.0 0.00021
367.0 0.00022
368.0 0.00023
369.0 0.00024
370.0 0.00025
371.0 0.00026
372.0 0.00028
373.0 0.0003
374.0 0.00031
375.0 0.00033
376.0 0.00035
377.0 0.00037
378.0 0.00039
379.0 0.0004
380.0 0.00042
381.0 0.00044
382.0 0.00041
383.0 0.00038
384.0 0.00035
385.0 0.00032
386.0 0.00029
387.0 0.00026
388.0 0.00023
389.0 0.0002
390.0 0.00017
391.0 0.00013
392.0 0.00018
393.0 0.00022
394.0 0.00026
395.0 0.00031
396.0 0.00035
397.0 0.0004
398.0 0.00044
399.0 0.00049
400.0 0.00045
401.0 0.00041
402.0 0.00038
403.0 0.00034
404.0 0.0003
405.0 0.00026
406.0 0.00022
407.0 0.00019
408.0 0.00015
409.0 0.00011
410.0 7e-05
411.0 7e-05
412.0 8e-05
413.0 9e-05
414.0 9e-05
415.0 0.0001
416.0 0.00011
417.0 0.00011
418.0 0.00012
419.0 0.00013
420.0 0.00014
423.0 0.00014
424.0 0.00015
432.0 0.00015
433.0 0.00014
439.0 0.00014
440.0 0.00013
441.0 0.00017
442.0 0.0002
443.0 0.00023
444.0 0.00027
445.0 0.0003
446.0 0.00033
447.0 0.00037
448.0 0.0004
449.0 0.00043
450.0 0.00047
451.0 0.00046
452.0 0.00045
453.0 0.00044
454.0 0.00042
455.0 0.00041
456.0 0.0004
457.0 0.00039
458.0 0.00038
459.0 0.00037
460.0 0.00038
461.0 0.00039
462.0 0.0004
463.0 0.00041
464.0 0.00042
465.0 0.00043
466.0 0.00044
467.0 0.00045
468.0 0.00046
469.0 0.00047
470.0 0.00048
471.0 0.00045
472.0 0.00042
473.0 0.0004
474.0 0.00037
475.0 0.00034
476.0 0.00032
477.0 0.00029
478.0 0.00026
479.0 0.00023
480.0 0.00021
481.0 0.0002
482.0 0.00019
483.0 0.00018
484.0 0.00017
485.0 0.00016
486.0 0.00015
487.0 0.00014
488.0 0.00013
489.0 0.00012
490.0 0.00011
491.0 0.00014
492.0 0.00017
493.0 0.0002
494.0 0.00023
495.0 0.00026
496.0 0.00029
497.0 0.00032
498.0 0.00035
499.0 0.00038
500.0 0.00041
501.0 0.00044
502.0 0.00047
503.0 0.0005
504.0 0.00053
505.0 0.00056
506.0 0.00059
507.0 0.00062
508.0 0.00065
509.0 0.00068
510.0 0.00071
511.0 0.00069
512.0 0.00068
513.0 0.00066
514.0 0.00064
515.0 0.00062
516.0 0.0006
517.0 0.00058
518.0 0.00056
519.0 0.00054
520.0 0.00052
522.0 0.00052
523.0 0.00051
525.0 0.00051
526.0 0.0005
528.0 0.0005
529.0 0.00049
541.0 0.00049
542.0 0.00054
543.0 0.00058
544.0 0.00063
545.0 0.00068
546.0 0.00073
547.0 0.00077
548.0 0.00082
549.0 0.00087
550.0 0.00092
551.0 0.0009
552.0 0.00088
553.0 0.00086
554.0 0.00084
555.0 0.00082
556.0 0.0008
557.0 0.00079
558.0 0.00077
559.0 0.00075
560.0 0.00073
561.0 0.00071
562.0 0.00069
563.0 0.00067
564.0 0.00065
565.0 0.00063
566.0 0.00061
567.0 0.0006
568.0 0.00057
569.0 0.00055
570.0 0.00053
571.0 0.00052
572.0 0.00049
573.0 0.00046
574.0 0.00043
575.0 0.00041
576.0 0.00038
577.0 0.00035
578.0 0.00032
579.0 0.0003
580.0 0.00027
588.0 0.00027
589.0 0.00026
590.0 0.00026
591.0 0.00028
592.0 0.00029
593.0 0.00031
594.0 0.00032
595.0 0.00033
596.0 0.00034
597.0 0.00036
598.0 0.00037
599.0 0.00038
600.0 0.0004
601.0 0.00041
602.0 0.00041
603.0 0.0004
605.0 0.0004
606.0 0.00039
607.0 0.00039
608.0 0.00038
610.0 0.00038
611.0 0.00036
612.0 0.00035
613.0 0.00033
614.0 0.00032
615.0 0.0003
616.0 0.00029
617.0 0.00028
618.0 0.00026
619.0 0.00025
620.0 0.00023
621.0 0.00023
622.0 0.00024
628.0 0.00024
629.0 0.00025
630.0 0.00025
631.0 0.00026
632.0 0.00027
633.0 0.00028
634.0 0.00029
635.0 0.00029
636.0 0.0003
637.0 0.00031
638.0 0.00032
639.0 0.00033
640.0 0.00034
641.0 0.00033
642.0 0.00033
643.0 0.00032
644.0 0.00031
645.0 0.0003
646.0 0.00029
647.0 0.00028
648.0 0.00027
649.0 0.00027
650.0 0.00026
651.0 0.00025
652.0 0.00024
653.0 0.00024
654.0 0.00023
655.0 0.00022
656.0 0.00021
657.0 0.0002
658.0 0.0002
659.0 0.00019
660.0 0.00018
661.0 0.00017
662.0 0.00015
663.0 0.00013
664.0 0.00012
665.0 0.0001
666.0 9e-05
667.0 7e-05
668.0 6e-05
669.0 4e-05
670.0 4e-05
671.0 3e-05
673.0 3e-05
674.0 2e-05
675.0 2e-05
676.0 1e-05
678.0 1e-05
679.0 0.0
723.0 0.0
724.0 1e-05
727.0 1e-05
728.0 2e-05
731.0 2e-05
732.0 3e-05
734.0 3e-05
735.0 4e-05
738.0 4e-05
739.0 5e-05
740.0 5e-05
741.0 2e-05
742.0 0.0
743.0 0.0001
744.0 0.0002
745.0 0.00019
746.0 0.00019
747.0 0.00012
748.0 5e-05
749.0 6e-05
750.0 7e-05
751.0 6e-05
752.0 4e-05
753.0 5e-05
754.0 6e-05
755.0 6e-05
756.0 5e-05
757.0 3e-05
758.0 0.0
759.0 0.00013
760.0 0.00011
761.0 6e-05
762.0 3e-05
763.0 6e-05
764.0 9e-05
765.0 8e-05
766.0 6e-05
767.0 5e-05
768.0 4e-05
769.0 8e-05
770.0 0.00013
771.0 0.00026
772.0 0.00039
773.0 0.00037
774.0 0.00034
775.0 0.00024
776.0 0.00015
777.0 0.00021
778.0 0.00026
779.0 0.00011
780.0 0.00021
781.0 0.00011
782.0 0.0
784.0 0.0
785.0 1e-05
786.0 1e-05
787.0 0.00023
788.0 0.00044
789.0 0.00031
790.0 0.00019
791.0 0.00017
792.0 0.00015
793.0 0.00014
794.0 0.00014
795.0 0.00011
796.0 9e-05
797.0 0.00012
798.0 0.00015
799.0 0.00049
800.0 0.00027
801.0 0.00058
802.0 0.00089
803.0 0.00096
804.0 0.00103
805.0 9e-05
806.0 3e-05
807.0 0.0011
808.0 0.00215
809.0 0.00196
810.0 0.00176
811.0 0.00394
812.0 0.0011
813.0 0.00051
814.0 0.00126
815.0 0.00064
816.0 0.0007
817.0 0.00255
818.0 0.00233
819.0 0.00211
820.0 0.00182
821.0 0.00154
822.0 0.00161
823.0 0.00165
824.0 0.00254
825.0 0.00345
826.0 0.00429
827.0 0.00513
828.0 0.00324
829.0 0.00865
830.0 0.00297
831.0 0.00628
832.0 0.0137
833.0 0.02118
834.0 0.00545
835.0 0.00808
836.0 0.01148
837.0 0.0149
838.0 0.00892
839.0 0.01277
840.0 0.01917
841.0 0.01921
842.0 0.02189
843.0 0.03835
844.0 0.04119
845.0 0.0931
846.0 0.08916
847.0 0.18452
848.0 0.18072
849.0 0.32249
850.0 0.31836
851.0 0.45016
852.0 0.44725
853.0 0.51399
854.0 0.51523
855.0 0.54188
856.0 0.53868
857.0 0.54054
858.0 0.53823
859.0 0.53664
860.0 0.54157
861.0 0.53759
862.0 0.54322
863.0 0.54812
864.0 0.55013
865.0 0.55215
866.0 0.54998
867.0 0.55687
868.0 0.55502
869.0 0.55316
870.0 0.55403
871.0 0.55564
872.0 0.55634
873.0 0.55705
874.0 0.55524
875.0 0.55344
876.0 0.55501
877.0 0.55657
878.0 0.55799
879.0 0.56016
880.0 0.56091
881.0 0.56167
882.0 0.56199
883.0 0.56232
884.0 0.56243
885.0 0.56178
886.0 0.56176
887.0 0.56327
888.0 0.56439
889.0 0.56521
890.0 0.56307
891.0 0.56093
892.0 0.55883
893.0 0.55369
894.0 0.55083
895.0 0.53436
896.0 0.53175
897.0 0.5231
898.0 0.51974
899.0 0.50833
900.0 0.51134
901.0 0.50552
902.0 0.50986
903.0 0.53168
904.0 0.54416
905.0 0.53921
906.0 0.53698
907.0 0.52312
908.0 0.51629
909.0 0.50678
910.0 0.51222
911.0 0.51562
912.0 0.51417
913.0 0.49889
914.0 0.50725
915.0 0.5119
916.0 0.513
917.0 0.51638
918.0 0.51954
919.0 0.53104
920.0 0.5395
921.0 0.53659
922.0 0.5357
923.0 0.53254
924.0 0.52401
925.0 0.5215
926.0 0.51788
927.0 0.50763
928.0 0.49472
929.0 0.47685
930.0 0.45444
931.0 0.43012
932.0 0.39789
933.0 0.37175
934.0 0.34324
935.0 0.33745
936.0 0.34371
937.0 0.33682
938.0 0.36013
939.0 0.4181
940.0 0.42076
941.0 0.40767
942.0 0.38561
943.0 0.34999
944.0 0.34712
945.0 0.35877
946.0 0.36065
947.0 0.37013
948.0 0.37624
949.0 0.37539
950.0 0.37887
951.0 0.39206
952.0 0.3789
953.0 0.38937
954.0 0.40001
955.0 0.39142
956.0 0.38994
957.0 0.4161
958.0 0.4179
959.0 0.41328
960.0 0.41207
961.0 0.40768
962.0 0.40874
963.0 0.42122
964.0 0.42052
965.0 0.41666
966.0 0.41941
967.0 0.42794
968.0 0.44209
969.0 0.44739
970.0 0.44704
971.0 0.44607
972.0 0.44323
973.0 0.43791
974.0 0.43137
975.0 0.42733
976.0 0.43028
977.0 0.42734
978.0 0.42217
979.0 0.41938
980.0 0.42755
981.0 0.42161
982.0 0.41523
983.0 0.41286
984.0 0.41211
985.0 0.40962
986.0 0.40693
987.0 0.40199
988.0 0.39782
989.0 0.3931
990.0 0.39219
991.0 0.3875
992.0 0.38065
993.0 0.37328
994.0 0.3566
995.0 0.33988
996.0 0.30378
997.0 0.26768
998.0 0.2205
999.0 0.17368
1000.0 0.1845
1001.0 0.09094
1002.0 0.06517
1003.0 0.03981
1004.0 0.02803
1005.0 0.01621
1006.0 0.01095
1007.0 0.0057
1008.0 0.00483
1009.0 0.00396
1010.0 0.00673
1011.0 0.0018
1012.0 0.00155
1013.0 0.0013
1014.0 0.00113
1015.0 0.00096
1016.0 0.00074
1017.0 0.00052
1018.0 0.00076
1019.0 0.001
1020.0 0.00066
1021.0 0.00064
1022.0 0.00078
1023.0 0.00091
1024.0 0.00076
1025.0 0.00062
1026.0 0.00144
1027.0 0.00226
1028.0 0.00134
1029.0 0.00041
1030.0 0.0004
1031.0 0.00039
1032.0 0.00039
1033.0 0.00038
1034.0 0.00037
1035.0 0.00036
1036.0 0.00035
1037.0 0.00034
1038.0 0.00033
1039.0 0.00032
1040.0 0.00031
1041.0 0.0003
1042.0 0.00028
1043.0 0.00027
1044.0 0.00026
1045.0 0.00025
1046.0 0.00024
1047.0 0.00023
1048.0 0.00021
1049.0 0.0002
1050.0 0.0002
1051.0 0.00019
1052.0 0.00019
1053.0 0.00018
1054.0 0.00018
1055.0 0.00017
1056.0 0.00017
1057.0 0.00016
1058.0 0.00016
1059.0 0.00015
1060.0 0.00015
1061.0 0.00014
1062.0 0.00014
1063.0 0.00013
1064.0 0.00013
1065.0 0.00012
1066.0 0.00012
1067.0 0.00011
1068.0 0.00011
1069.0 0.0001
1070.0 0.0001
1071.0 9e-05
1072.0 9e-05
1073.0 8e-05
1074.0 7e-05
1075.0 6e-05
1076.0 5e-05
1077.0 4e-05
1078.0 3e-05
1079.0 2e-05
1080.0 1e-05
1081.0 0.0
1083.0 0.0
1084.0 1e-05
1087.0 1e-05
1088.0 2e-05
1092.0 2e-05
1093.0 3e-05
1097.0 3e-05
1098.0 0.0
