# %ECSV 0.9
# ---
# datatype:
# - {name: wavelength, unit: nm, datatype: float64}
# - {name: response, datatype: float64}
# meta: !!omap
# - {url: 'http://www.ctio.noao.edu/noao/content/dark-energy-camera-decam'}
# - {band_name: i}
# - {airmass: 1.3}
# - {description: 'DECam i-band throughput from a spreadsheet created in 2014 by William
#     Wester.
# 
#     Throughputs include an airmass 1.3 reference atmosphere provided by Ting Li.'}
# - {group_name: decam2014}
wavelength response
333.0 0.0
334.0 0.00011
335.0 0.00011
336.0 0.0001
337.0 0.0001
338.0 9e-05
339.0 9e-05
340.0 8e-05
341.0 8e-05
342.0 7e-05
343.0 7e-05
344.0 6e-05
346.0 6e-05
347.0 5e-05
348.0 5e-05
349.0 4e-05
350.0 4e-05
351.0 3e-05
363.0 3e-05
364.0 2e-05
366.0 2e-05
367.0 1e-05
369.0 1e-05
370.0 0.0
375.0 0.0
376.0 1e-05
381.0 1e-05
382.0 2e-05
383.0 2e-05
384.0 3e-05
385.0 3e-05
386.0 4e-05
388.0 4e-05
389.0 5e-05
390.0 5e-05
391.0 6e-05
392.0 0.00012
393.0 0.00019
394.0 0.00025
395.0 0.00031
396.0 0.00038
397.0 0.00044
398.0 0.00051
399.0 0.00058
400.0 0.00064
401.0 0.00071
402.0 0.00078
403.0 0.00085
404.0 0.00092
405.0 0.00099
406.0 0.00106
407.0 0.00113
408.0 0.0012
409.0 0.00127
410.0 0.00134
411.0 0.00136
412.0 0.00138
413.0 0.00141
414.0 0.00143
415.0 0.00145
416.0 0.00147
417.0 0.00149
418.0 0.00152
419.0 0.00154
420.0 0.00156
421.0 0.00158
422.0 0.00154
423.0 0.00149
424.0 0.00144
425.0 0.00139
426.0 0.00135
427.0 0.0013
428.0 0.00125
429.0 0.0012
430.0 0.00115
431.0 0.0011
432.0 0.00105
433.0 0.001
434.0 0.00095
435.0 0.0009
436.0 0.00085
437.0 0.0008
438.0 0.00074
439.0 0.00069
440.0 0.00064
441.0 0.00072
442.0 0.0008
443.0 0.00088
444.0 0.00095
445.0 0.00103
446.0 0.00111
447.0 0.00119
448.0 0.00127
449.0 0.00135
450.0 0.00144
451.0 0.00136
452.0 0.00129
453.0 0.00122
454.0 0.00114
455.0 0.00107
456.0 0.00099
457.0 0.00092
458.0 0.00084
459.0 0.00076
460.0 0.00069
461.0 0.00061
462.0 0.00062
463.0 0.00063
464.0 0.00063
465.0 0.00064
466.0 0.00065
467.0 0.00066
468.0 0.00067
469.0 0.00067
470.0 0.00068
471.0 0.00072
472.0 0.00076
473.0 0.0008
474.0 0.00083
475.0 0.00087
476.0 0.00091
477.0 0.00095
478.0 0.00099
479.0 0.00103
480.0 0.00107
481.0 0.00111
482.0 0.00115
483.0 0.0012
484.0 0.00125
485.0 0.00129
486.0 0.00134
487.0 0.00138
488.0 0.00143
489.0 0.00147
490.0 0.00152
491.0 0.00148
492.0 0.00144
493.0 0.0014
494.0 0.00136
495.0 0.00132
496.0 0.00128
497.0 0.00124
498.0 0.0012
499.0 0.00116
500.0 0.00112
501.0 0.00105
502.0 0.00099
503.0 0.00093
504.0 0.00087
505.0 0.0008
506.0 0.00074
507.0 0.00068
508.0 0.00061
509.0 0.00055
512.0 0.00055
513.0 0.00054
517.0 0.00054
518.0 0.00053
521.0 0.00053
522.0 0.00054
523.0 0.00054
524.0 0.00055
525.0 0.00055
526.0 0.00056
527.0 0.00056
528.0 0.00057
529.0 0.00057
530.0 0.00056
531.0 0.00055
532.0 0.00055
533.0 0.00054
534.0 0.00053
535.0 0.00052
536.0 0.00051
537.0 0.0005
538.0 0.0005
539.0 0.00049
540.0 0.00048
541.0 0.00047
542.0 0.00046
543.0 0.00045
544.0 0.00043
545.0 0.00042
546.0 0.00041
547.0 0.0004
548.0 0.00039
549.0 0.00038
550.0 0.00037
551.0 0.00034
552.0 0.00032
553.0 0.0003
554.0 0.00027
555.0 0.00025
556.0 0.00022
557.0 0.0002
558.0 0.00017
559.0 0.00015
560.0 0.00012
561.0 0.00012
562.0 0.00011
563.0 0.0001
564.0 9e-05
565.0 9e-05
566.0 8e-05
567.0 7e-05
568.0 7e-05
569.0 6e-05
570.0 5e-05
571.0 4e-05
575.0 4e-05
576.0 5e-05
589.0 5e-05
590.0 4e-05
591.0 5e-05
592.0 4e-05
602.0 4e-05
603.0 5e-05
621.0 5e-05
622.0 4e-05
629.0 4e-05
630.0 5e-05
633.0 5e-05
634.0 6e-05
636.0 6e-05
637.0 7e-05
640.0 7e-05
641.0 8e-05
646.0 8e-05
647.0 9e-05
650.0 9e-05
651.0 0.00012
652.0 6e-05
653.0 9e-05
654.0 0.00011
655.0 0.00012
656.0 0.00013
657.0 0.00016
658.0 0.00019
659.0 0.00017
660.0 0.00018
661.0 0.00019
662.0 0.00019
663.0 0.00018
664.0 0.00018
665.0 0.00019
666.0 0.00019
667.0 0.00025
668.0 0.0003
669.0 0.00035
670.0 0.0003
671.0 0.00032
672.0 0.00033
673.0 0.00214
674.0 0.00396
675.0 0.00222
676.0 0.00047
677.0 0.00056
678.0 0.00064
679.0 0.00072
680.0 0.0008
681.0 0.00087
682.0 0.00095
683.0 0.00106
684.0 0.00117
685.0 0.00133
686.0 0.00148
687.0 0.00145
688.0 0.0017
689.0 0.0025
690.0 0.00233
691.0 0.00273
692.0 0.00312
693.0 0.00379
694.0 0.00443
695.0 0.00577
696.0 0.00711
697.0 0.01045
698.0 0.01363
699.0 0.04628
700.0 0.03292
701.0 0.04638
702.0 0.0601
703.0 0.08735
704.0 0.11407
705.0 0.15083
706.0 0.18851
707.0 0.2326
708.0 0.27654
709.0 0.35156
710.0 0.35919
711.0 0.39753
712.0 0.43618
713.0 0.45949
714.0 0.48335
715.0 0.49618
716.0 0.50821
717.0 0.49859
718.0 0.49527
719.0 0.4917
720.0 0.48666
721.0 0.50827
722.0 0.51965
723.0 0.51573
724.0 0.50363
725.0 0.50804
726.0 0.50948
727.0 0.5142
728.0 0.5144
729.0 0.51975
730.0 0.51905
731.0 0.51644
732.0 0.52598
733.0 0.53199
734.0 0.5342
735.0 0.53279
736.0 0.52988
737.0 0.53243
738.0 0.5365
739.0 0.53837
740.0 0.54449
741.0 0.54652
742.0 0.54856
743.0 0.55021
744.0 0.5511
745.0 0.55152
746.0 0.55117
747.0 0.55079
748.0 0.55117
749.0 0.54956
750.0 0.55204
751.0 0.55295
752.0 0.5531
753.0 0.55329
754.0 0.55425
755.0 0.55354
756.0 0.55283
757.0 0.55163
758.0 0.54967
759.0 0.50813
760.0 0.2276
761.0 0.20224
762.0 0.36122
763.0 0.31158
764.0 0.33663
765.0 0.39419
766.0 0.46423
767.0 0.50028
768.0 0.52359
769.0 0.53739
770.0 0.54703
771.0 0.55104
772.0 0.55203
773.0 0.55371
774.0 0.55464
775.0 0.55667
776.0 0.55793
777.0 0.55897
778.0 0.56
779.0 0.55949
780.0 0.55898
781.0 0.55964
782.0 0.55955
783.0 0.55919
784.0 0.55884
785.0 0.55819
786.0 0.55754
787.0 0.55577
788.0 0.554
789.0 0.54919
790.0 0.54668
791.0 0.54643
792.0 0.54523
793.0 0.54367
794.0 0.54359
795.0 0.5397
796.0 0.53214
797.0 0.53289
798.0 0.53584
799.0 0.53698
800.0 0.53664
801.0 0.53771
802.0 0.53879
803.0 0.54128
804.0 0.54603
805.0 0.5452
806.0 0.54846
807.0 0.56254
808.0 0.55078
809.0 0.54615
810.0 0.54234
811.0 0.53812
812.0 0.53708
813.0 0.52716
814.0 0.53044
815.0 0.52817
816.0 0.51892
817.0 0.52193
818.0 0.52258
819.0 0.52182
820.0 0.52843
821.0 0.5365
822.0 0.52609
823.0 0.50479
824.0 0.5187
825.0 0.5267
826.0 0.52721
827.0 0.52771
828.0 0.52316
829.0 0.52818
830.0 0.53471
831.0 0.53992
832.0 0.54708
833.0 0.55579
834.0 0.54913
835.0 0.55017
836.0 0.54446
837.0 0.5395
838.0 0.54519
839.0 0.54641
840.0 0.54532
841.0 0.5475
842.0 0.54425
843.0 0.55423
844.0 0.5503
845.0 0.56301
846.0 0.5535
847.0 0.57298
848.0 0.28538
849.0 0.55304
850.0 0.56697
851.0 0.55553
852.0 0.56032
853.0 0.49049
854.0 0.47954
855.0 0.33257
856.0 0.31565
857.0 0.1651
858.0 0.16244
859.0 0.06654
860.0 0.06245
861.0 0.02343
862.0 0.02357
863.0 0.00865
864.0 0.00899
865.0 0.00377
866.0 0.00348
867.0 0.00156
868.0 0.00143
869.0 0.0013
870.0 0.00276
871.0 0.00092
872.0 0.00092
873.0 0.00093
874.0 0.00061
875.0 0.00044
876.0 0.00048
877.0 0.00052
878.0 0.00038
879.0 0.00024
880.0 0.00059
881.0 0.00064
882.0 0.00061
883.0 0.00057
884.0 0.00053
885.0 0.00032
886.0 0.00039
887.0 0.00047
888.0 0.00052
889.0 0.00049
890.0 0.00047
891.0 0.00032
893.0 0.00032
894.0 0.00033
895.0 0.00039
896.0 0.00045
897.0 0.00045
898.0 0.00044
899.0 0.00056
900.0 0.00068
901.0 0.00046
902.0 0.00046
903.0 0.00049
904.0 0.0005
906.0 0.0005
907.0 0.00049
910.0 0.00049
911.0 0.0005
912.0 0.0005
913.0 0.00049
914.0 0.00049
915.0 0.0005
918.0 0.0005
919.0 0.00051
920.0 0.00052
921.0 0.00051
923.0 0.00051
924.0 0.0005
926.0 0.0005
927.0 0.00049
928.0 0.00048
929.0 0.00047
930.0 0.00046
931.0 0.00044
932.0 0.00042
933.0 0.0004
934.0 0.00037
935.0 0.00038
936.0 0.00039
937.0 0.00039
938.0 0.00043
939.0 0.00051
940.0 0.00052
941.0 0.0005
942.0 0.00047
943.0 0.00043
944.0 0.00042
945.0 0.00043
946.0 0.00042
947.0 0.00043
948.0 0.00043
949.0 0.00042
950.0 0.00042
951.0 0.00043
952.0 0.00042
953.0 0.00044
954.0 0.00045
956.0 0.00045
957.0 0.00049
958.0 0.0005
959.0 0.0005
960.0 0.00051
962.0 0.00051
963.0 0.00053
965.0 0.00053
966.0 0.00054
967.0 0.00055
968.0 0.00057
969.0 0.00058
972.0 0.00058
973.0 0.00057
974.0 0.00056
975.0 0.00056
976.0 0.00057
978.0 0.00057
979.0 0.00058
980.0 0.00059
981.0 0.00058
982.0 0.00057
983.0 0.00056
984.0 0.00055
985.0 0.00054
986.0 0.00054
987.0 0.00053
988.0 0.00052
989.0 0.00051
990.0 0.0005
991.0 0.00049
994.0 0.00049
995.0 0.00048
997.0 0.00048
998.0 0.00047
999.0 0.00047
1000.0 0.00046
1001.0 0.00045
1002.0 0.00043
1003.0 0.00042
1004.0 0.00041
1005.0 0.0004
1006.0 0.00039
1007.0 0.00038
1008.0 0.00037
1009.0 0.00036
1010.0 0.00035
1012.0 0.00035
1013.0 0.00034
1014.0 0.00034
1015.0 0.00033
1017.0 0.00033
1018.0 0.00032
1019.0 0.00032
1020.0 0.00031
1021.0 0.00031
1022.0 0.0003
1023.0 0.00029
1024.0 0.00029
1025.0 0.00028
1026.0 0.00027
1027.0 0.00027
1028.0 0.00026
1029.0 0.00026
1030.0 0.00025
1031.0 0.00024
1032.0 0.00023
1033.0 0.00022
1034.0 0.00021
1035.0 0.00021
1036.0 0.0002
1037.0 0.00019
1038.0 0.00018
1039.0 0.00017
1040.0 0.00017
1041.0 0.00016
1042.0 0.00015
1043.0 0.00015
1044.0 0.00014
1045.0 0.00013
1046.0 0.00013
1047.0 0.00012
1048.0 0.00011
1049.0 0.00011
1050.0 0.0001
1056.0 0.0001
1057.0 9e-05
1062.0 9e-05
1063.0 8e-05
1068.0 8e-05
1069.0 7e-05
1074.0 7e-05
1075.0 6e-05
1078.0 6e-05
1079.0 5e-05
1081.0 5e-05
1082.0 4e-05
1083.0 4e-05
1084.0 3e-05
1086.0 3e-05
1087.0 2e-05
1088.0 2e-05
1089.0 1e-05
1096.0 1e-05
1097.0 2e-05
1098.0 0.0
