# %ECSV 0.9
# ---
# datatype:
# - {name: wavelength, unit: micron, datatype: float64}
# - {name: response, datatype: float64}
# meta: !!omap
# - {url: 'http://dx.doi.org/10.1088/0004-6256/140/6/1868'}
# - {band_name: W3}
# - {airmass: 0.0}
# - {description: 'WISE W3 weighted mean relative spectral response curve from Figure
#     6 of:
# 
#     Wright et al, "The Wide-field Infrared Survey Explorer (WISE): Mission Description
#     and Initial On-orbit Performance",
# 
#     The Astronomical Journal, Volume 140, Issue 6, pp. 1868-1881 (2010).
# 
#     Values below 0.0001 of the maximum response are set to zero.'}
# - {group_name: wise2010}
wavelength response
7.2 0.0
7.21 0.001449
7.22 0.001426
7.23 0.001781
7.24 0.001871
7.25 0.001722
7.26 0.001807
7.27 0.001602
7.28 0.0009638
7.29 0.00137
7.3 0.002237
7.31 0.002801
7.32 0.00298
7.33 0.002918
7.34 0.003123
7.35 0.003044
7.36 0.002752
7.37 0.002747
7.38 0.002611
7.39 0.002777
7.4 0.003004
7.41 0.003507
7.42 0.004445
7.43 0.005815
7.44 0.007552
7.45 0.009546
7.46 0.01174
7.47 0.01417
7.48 0.01724
7.49 0.02125
7.5 0.02693
7.51 0.03488
7.52 0.04599
7.53 0.06104
7.54 0.08063
7.55 0.1044
7.56 0.132
7.57 0.1605
7.58 0.1851
7.59 0.2039
7.6 0.2149
7.61 0.2179
7.62 0.214
7.63 0.206
7.64 0.196
7.65 0.187
7.66 0.179
7.67 0.173
7.68 0.168
7.69 0.165
7.7 0.164
7.72 0.164
7.73 0.165
7.74 0.166
7.75 0.166
7.76 0.167
7.77 0.168
7.78 0.17
7.79 0.173
7.8 0.176
7.81 0.179
7.82 0.182
7.83 0.185
7.84 0.188
7.85 0.19
7.86 0.192
7.87 0.193
7.88 0.194
7.89 0.195
7.9 0.197
7.91 0.198
7.92 0.2
7.93 0.204
7.94 0.207
7.95 0.211
7.96 0.216
7.97 0.222
7.98 0.228
7.99 0.233
8.0 0.237
8.01 0.24
8.02 0.243
8.03 0.245
8.04 0.247
8.05 0.248
8.06 0.248
8.07 0.249
8.08 0.249
8.09 0.251
8.1 0.252
8.12 0.252
8.13 0.251
8.14 0.249
8.15 0.247
8.16 0.244
8.17 0.241
8.18 0.239
8.19 0.238
8.2 0.236
8.21 0.235
8.22 0.233
8.23 0.232
8.24 0.231
8.25 0.229
8.26 0.226
8.27 0.222
8.28 0.218
8.29 0.214
8.3 0.213
8.32 0.213
8.33 0.214
8.34 0.214
8.35 0.213
8.36 0.212
8.37 0.212
8.38 0.213
8.39 0.215
8.4 0.217
8.41 0.218
8.42 0.22
8.43 0.222
8.44 0.224
8.45 0.226
8.46 0.229
8.47 0.232
8.48 0.235
8.49 0.238
8.5 0.241
8.51 0.244
8.52 0.246
8.53 0.248
8.54 0.25
8.55 0.252
8.56 0.254
8.57 0.255
8.58 0.256
8.59 0.256
8.6 0.255
8.61 0.254
8.62 0.253
8.63 0.252
8.64 0.25
8.65 0.249
8.66 0.248
8.67 0.247
8.68 0.246
8.69 0.244
8.7 0.243
8.71 0.241
8.72 0.24
8.73 0.239
8.74 0.236
8.75 0.231
8.76 0.22
8.77 0.201
8.78 0.175
8.79 0.15
8.8 0.136
8.81 0.14
8.82 0.157
8.83 0.18
8.84 0.2
8.85 0.214
8.86 0.222
8.87 0.227
8.88 0.23
8.89 0.233
8.9 0.236
8.91 0.239
8.92 0.241
8.93 0.243
8.94 0.244
8.95 0.244
8.96 0.245
8.97 0.246
8.98 0.246
8.99 0.247
9.0 0.247
9.01 0.246
9.02 0.245
9.03 0.244
9.04 0.243
9.05 0.242
9.06 0.242
9.07 0.243
9.08 0.243
9.09 0.244
9.1 0.245
9.11 0.247
9.12 0.247
9.13 0.248
9.14 0.248
9.15 0.247
9.16 0.246
9.17 0.244
9.18 0.243
9.19 0.241
9.2 0.24
9.21 0.24
9.22 0.239
9.23 0.239
9.24 0.238
9.25 0.238
9.26 0.236
9.27 0.236
9.28 0.235
9.29 0.235
9.3 0.236
9.31 0.236
9.32 0.237
9.34 0.237
9.35 0.238
9.36 0.238
9.37 0.237
9.39 0.237
9.4 0.238
9.41 0.238
9.42 0.239
9.43 0.239
9.44 0.24
9.45 0.241
9.46 0.242
9.47 0.243
9.48 0.245
9.49 0.247
9.5 0.249
9.51 0.251
9.52 0.252
9.54 0.252
9.55 0.251
9.56 0.249
9.57 0.248
9.58 0.246
9.59 0.244
9.6 0.242
9.61 0.24
9.62 0.239
9.63 0.238
9.64 0.238
9.65 0.239
9.66 0.24
9.67 0.242
9.68 0.243
9.69 0.245
9.7 0.246
9.73 0.246
9.74 0.245
9.75 0.244
9.78 0.244
9.79 0.245
9.8 0.246
9.81 0.247
9.82 0.248
9.83 0.249
9.84 0.25
9.85 0.251
9.86 0.252
9.87 0.253
9.88 0.254
9.89 0.255
9.9 0.257
9.91 0.259
9.92 0.262
9.93 0.264
9.94 0.267
9.95 0.269
9.96 0.271
9.97 0.273
9.98 0.274
9.99 0.276
10.0 0.277
10.01 0.279
10.02 0.282
10.03 0.284
10.04 0.287
10.05 0.291
10.06 0.295
10.07 0.299
10.08 0.302
10.09 0.306
10.1 0.31
10.11 0.313
10.12 0.316
10.13 0.319
10.14 0.321
10.15 0.323
10.16 0.325
10.17 0.327
10.19 0.327
10.2 0.326
10.21 0.324
10.22 0.322
10.23 0.32
10.24 0.318
10.25 0.317
10.26 0.315
10.27 0.312
10.28 0.31
10.29 0.307
10.3 0.305
10.31 0.302
10.32 0.301
10.33 0.3
10.34 0.299
10.38 0.299
10.39 0.298
10.4 0.297
10.41 0.296
10.42 0.295
10.43 0.294
10.44 0.292
10.45 0.292
10.46 0.291
10.48 0.291
10.49 0.292
10.5 0.293
10.51 0.294
10.52 0.295
10.53 0.295
10.54 0.296
10.55 0.297
10.56 0.298
10.57 0.299
10.58 0.301
10.59 0.302
10.6 0.304
10.61 0.305
10.62 0.306
10.63 0.307
10.64 0.308
10.65 0.309
10.66 0.31
10.67 0.311
10.68 0.313
10.69 0.314
10.7 0.314
10.71 0.315
10.72 0.315
10.73 0.314
10.74 0.313
10.75 0.312
10.76 0.311
10.77 0.31
10.78 0.309
10.79 0.308
10.81 0.308
10.82 0.309
10.83 0.31
10.84 0.311
10.85 0.312
10.86 0.313
10.87 0.313
10.88 0.312
10.89 0.311
10.9 0.31
10.91 0.308
10.92 0.306
10.93 0.305
10.94 0.303
10.95 0.301
10.96 0.3
10.97 0.299
10.98 0.298
11.01 0.298
11.02 0.299
11.03 0.3
11.04 0.301
11.06 0.301
11.07 0.3
11.08 0.299
11.09 0.299
11.1 0.298
11.11 0.298
11.12 0.297
11.14 0.297
11.15 0.296
11.16 0.296
11.17 0.294
11.18 0.293
11.19 0.291
11.2 0.289
11.21 0.287
11.22 0.285
11.23 0.283
11.24 0.282
11.25 0.281
11.26 0.28
11.27 0.28
11.28 0.281
11.29 0.281
11.3 0.282
11.31 0.283
11.32 0.285
11.33 0.286
11.34 0.287
11.35 0.288
11.36 0.289
11.37 0.289
11.38 0.29
11.39 0.29
11.4 0.291
11.41 0.291
11.42 0.292
11.43 0.293
11.44 0.294
11.45 0.295
11.46 0.296
11.47 0.298
11.48 0.299
11.49 0.301
11.5 0.302
11.51 0.304
11.52 0.306
11.53 0.308
11.54 0.31
11.55 0.312
11.56 0.314
11.57 0.315
11.58 0.316
11.59 0.317
11.6 0.317
11.61 0.318
11.62 0.318
11.63 0.319
11.64 0.319
11.65 0.32
11.66 0.32
11.67 0.321
11.7 0.321
11.71 0.32
11.72 0.319
11.73 0.317
11.74 0.315
11.75 0.314
11.76 0.312
11.77 0.31
11.78 0.309
11.79 0.308
11.8 0.307
11.81 0.307
11.82 0.306
11.84 0.306
11.85 0.305
11.86 0.304
11.87 0.303
11.88 0.302
11.89 0.301
11.9 0.299
11.91 0.298
11.92 0.297
11.93 0.296
11.94 0.295
11.95 0.295
11.96 0.294
11.98 0.294
11.99 0.293
12.0 0.293
12.01 0.292
12.02 0.291
12.03 0.29
12.04 0.289
12.05 0.288
12.06 0.286
12.07 0.285
12.08 0.283
12.09 0.283
12.1 0.282
12.12 0.282
12.13 0.283
12.14 0.284
12.15 0.285
12.16 0.286
12.17 0.287
12.18 0.288
12.19 0.289
12.2 0.291
12.21 0.291
12.22 0.292
12.23 0.293
12.24 0.293
12.25 0.294
12.27 0.294
12.28 0.295
12.29 0.295
12.3 0.296
12.31 0.297
12.32 0.299
12.33 0.301
12.34 0.303
12.35 0.305
12.36 0.307
12.37 0.309
12.38 0.311
12.39 0.314
12.4 0.316
12.41 0.319
12.42 0.322
12.43 0.324
12.44 0.327
12.45 0.329
12.46 0.332
12.47 0.334
12.48 0.336
12.49 0.337
12.5 0.338
12.51 0.339
12.52 0.34
12.53 0.339
12.54 0.339
12.55 0.338
12.56 0.337
12.57 0.336
12.58 0.335
12.59 0.334
12.62 0.334
12.63 0.335
12.64 0.336
12.65 0.337
12.66 0.338
12.67 0.3379
12.68 0.3389
12.72 0.3389
12.73 0.339
12.75 0.339
12.76 0.34
12.77 0.34
12.78 0.341
12.79 0.342
12.8 0.343
12.81 0.344
12.82 0.346
12.83 0.348
12.84 0.35
12.85 0.352
12.86 0.355
12.87 0.357
12.88 0.359
12.89 0.362
12.9 0.363
12.91 0.365
12.92 0.366
12.93 0.367
12.94 0.367
12.95 0.368
12.96 0.368
12.97 0.367
13.02 0.367
13.03 0.368
13.04 0.369
13.05 0.37
13.06 0.371
13.07 0.373
13.08 0.376
13.09 0.378
13.1 0.381
13.11 0.384
13.12 0.387
13.13 0.39
13.14 0.392
13.15 0.395
13.16 0.398
13.17 0.4
13.18 0.402
13.19 0.404
13.2 0.406
13.21 0.408
13.22 0.409
13.23 0.41
13.24 0.411
13.25 0.412
13.26 0.413
13.27 0.414
13.31 0.414
13.32 0.413
13.33 0.412
13.34 0.41
13.35 0.409
13.36 0.408
13.37 0.406
13.38 0.405
13.39 0.404
13.4 0.403
13.44 0.403
13.45 0.404
13.46 0.404
13.47 0.405
13.48 0.405
13.49 0.406
13.56 0.406
13.57 0.407
13.58 0.407
13.59 0.408
13.6 0.408
13.61 0.409
13.62 0.409
13.63 0.41
13.65 0.41
13.66 0.409
13.67 0.409
13.68 0.408
13.69 0.407
13.7 0.406
13.71 0.405
13.72 0.404
13.73 0.403
13.74 0.402
13.75 0.401
13.79 0.401
13.8 0.402
13.81 0.402
13.82 0.403
13.83 0.404
13.85 0.404
13.86 0.405
13.9 0.405
13.91 0.406
13.93 0.406
13.94 0.407
13.95 0.408
13.96 0.409
13.97 0.41
13.98 0.411
13.99 0.412
14.0 0.414
14.01 0.415
14.02 0.416
14.03 0.417
14.04 0.418
14.05 0.418
14.06 0.419
14.07 0.419
14.08 0.418
14.09 0.418
14.1 0.417
14.11 0.417
14.12 0.416
14.13 0.415
14.15 0.415
14.16 0.414
14.17 0.415
14.18 0.415
14.19 0.416
14.2 0.416
14.21 0.417
14.22 0.418
14.23 0.418
14.24 0.419
14.26 0.419
14.27 0.418
14.28 0.417
14.29 0.417
14.3 0.416
14.31 0.415
14.32 0.415
14.33 0.414
14.35 0.414
14.36 0.415
14.37 0.415
14.38 0.416
14.39 0.417
14.4 0.418
14.41 0.418
14.42 0.419
14.43 0.42
14.46 0.42
14.47 0.419
14.48 0.418
14.49 0.417
14.5 0.416
14.51 0.415
14.52 0.414
14.53 0.413
14.54 0.412
14.55 0.411
14.56 0.41
14.57 0.409
14.58 0.408
14.59 0.407
14.6 0.406
14.61 0.405
14.62 0.404
14.63 0.403
14.64 0.402
14.65 0.401
14.66 0.4
14.67 0.399
14.68 0.398
14.69 0.398
14.7 0.397
14.71 0.397
14.72 0.396
14.73 0.396
14.74 0.395
14.76 0.395
14.77 0.394
14.78 0.393
14.79 0.392
14.8 0.391
14.81 0.391
14.82 0.389
14.83 0.388
14.84 0.387
14.85 0.386
14.86 0.385
14.87 0.384
14.88 0.383
14.89 0.382
14.9 0.381
14.91 0.38
14.92 0.379
14.93 0.377
14.94 0.376
14.95 0.375
14.96 0.373
14.97 0.372
14.98 0.371
14.99 0.369
15.0 0.368
15.01 0.367
15.02 0.366
15.03 0.365
15.04 0.364
15.05 0.363
15.06 0.362
15.07 0.361
15.08 0.36
15.09 0.359
15.1 0.357
15.11 0.356
15.12 0.355
15.13 0.353
15.14 0.351
15.15 0.349
15.16 0.347
15.17 0.344
15.18 0.341
15.19 0.338
15.2 0.335
15.21 0.332
15.22 0.328
15.23 0.325
15.24 0.321
15.25 0.318
15.26 0.315
15.27 0.311
15.28 0.308
15.29 0.305
15.3 0.302
15.31 0.299
15.32 0.297
15.33 0.294
15.34 0.291
15.35 0.288
15.36 0.285
15.37 0.282
15.38 0.2791
15.39 0.2761
15.4 0.2731
15.41 0.2701
15.42 0.2671
15.43 0.265
15.44 0.262
15.45 0.26
15.46 0.259
15.47 0.257
15.48 0.256
15.49 0.255
15.5 0.254
15.52 0.254
15.53 0.253
15.57 0.253
15.58 0.254
15.61 0.254
15.62 0.255
15.63 0.255
15.64 0.256
15.65 0.256
15.66 0.257
15.67 0.257
15.68 0.258
15.7 0.258
15.71 0.259
15.74 0.259
15.75 0.258
15.77 0.258
15.78 0.257
15.79 0.257
15.8 0.256
15.81 0.255
15.82 0.255
15.83 0.254
15.84 0.253
15.85 0.252
15.86 0.25
15.87 0.249
15.88 0.248
15.89 0.246
15.9 0.245
15.91 0.243
15.92 0.241
15.93 0.24
15.94 0.238
15.95 0.236
15.96 0.235
15.97 0.233
15.98 0.232
15.99 0.231
16.0 0.23
16.01 0.229
16.02 0.228
16.03 0.227
16.04 0.227
16.05 0.226
16.09 0.226
16.1 0.225
16.12 0.225
16.13 0.224
16.15 0.224
16.16 0.223
16.17 0.222
16.18 0.222
16.19 0.221
16.2 0.22
16.21 0.219
16.22 0.218
16.23 0.217
16.24 0.215
16.25 0.214
16.26 0.212
16.27 0.21
16.28 0.208
16.29 0.206
16.3 0.203
16.31 0.2
16.32 0.1971
16.33 0.1941
16.34 0.1911
16.35 0.1871
16.36 0.1831
16.37 0.1791
16.38 0.1751
16.39 0.1711
16.4 0.1671
16.41 0.1621
16.42 0.1581
16.43 0.1531
16.44 0.1491
16.45 0.1441
16.46 0.1391
16.47 0.1351
16.48 0.1301
16.49 0.1251
16.5 0.1211
16.51 0.1161
16.52 0.1121
16.53 0.1071
16.54 0.1031
16.55 0.09826
16.56 0.09395
16.57 0.08975
16.58 0.08574
16.59 0.08164
16.6 0.07784
16.61 0.07415
16.62 0.07055
16.63 0.06705
16.64 0.06366
16.65 0.06056
16.66 0.05746
16.67 0.05446
16.68 0.05175
16.69 0.04915
16.7 0.04664
16.71 0.04433
16.72 0.04203
16.73 0.03992
16.74 0.03802
16.75 0.03602
16.76 0.03432
16.77 0.03272
16.78 0.03112
16.79 0.02972
16.8 0.02833
16.81 0.02702
16.82 0.02582
16.83 0.02462
16.84 0.02362
16.85 0.02261
16.86 0.02161
16.87 0.02071
16.88 0.0198
16.89 0.019
16.9 0.01829
16.91 0.01749
16.92 0.01688
16.93 0.01618
16.94 0.01558
16.95 0.01508
16.96 0.01448
16.97 0.01398
16.98 0.01348
16.99 0.01308
17.0 0.01268
17.01 0.01228
17.02 0.01188
17.03 0.01148
17.04 0.01117
17.05 0.01078
17.06 0.01047
17.07 0.01017
17.08 0.009841
17.09 0.009527
17.1 0.00922
17.11 0.008904
17.12 0.008581
17.13 0.008264
17.14 0.007939
17.15 0.007596
17.16 0.007261
17.17 0.006905
17.18 0.006539
17.19 0.006171
17.2 0.005805
17.21 0.005428
17.22 0.005052
17.23 0.004674
17.24 0.004306
17.25 0.003927
17.26 0.003567
17.27 0.003206
17.28 0.002844
17.29 0.002495
17.3 0.002175
17.31 0.001847
17.32 0.001553
17.33 0.00125
17.34 0.0009764
17.35 0.0006603
17.36 0.0007003
17.37 0.0004424
17.38 0.002304
17.39 0.002469
17.4 0.002486
17.41 0.002345
17.42 0.002029
17.43 0.00159
17.44 0.001059
17.45 0.0004373
17.46 0.001136
17.47 0.0002343
17.48 0.0006431
17.49 0.0008803
17.5 0.00101
17.51 0.001365
17.52 0.001328
17.53 0.001098
17.54 0.0009208
17.55 0.0007691
17.56 0.0006316
17.57 0.0005031
17.58 0.0003633
17.59 0.0004194
17.6 0.0003795
17.61 0.0003458
17.62 0.0003171
17.63 0.0002936
17.64 0.0002648
17.65 0.0002184
17.66 0.0002046
17.67 0.000187
17.68 0.0001695
17.69 0.0001526
17.7 0.0001367
17.71 0.0001189
17.72 0.000111
17.73 0.0001035
17.74 9.726e-05
17.75 9.178e-05
17.76 8.668e-05
17.77 8.116e-05
17.78 7.646e-05
17.79 7.226e-05
17.8 6.856e-05
17.81 6.541e-05
17.82 6.241e-05
17.83 5.972e-05
17.84 5.727e-05
17.85 5.509e-05
17.86 5.301e-05
17.87 5.116e-05
17.88 4.928e-05
17.89 4.837e-05
17.9 4.743e-05
17.91 4.658e-05
17.92 4.571e-05
17.93 4.494e-05
17.94 4.415e-05
17.95 4.336e-05
17.96 4.87e-05
17.97 5.029e-05
17.98 5.067e-05
17.99 5.043e-05
18.0 5.011e-05
18.01 4.952e-05
18.02 4.927e-05
18.03 4.815e-05
18.04 4.608e-05
18.05 0.0
18.18 0.0
18.19 4.729e-05
18.2 4.957e-05
18.21 5.051e-05
18.22 5.058e-05
18.23 5.021e-05
18.24 4.962e-05
18.25 4.851e-05
18.26 4.705e-05
18.27 4.502e-05
18.28 4.28e-05
18.29 0.0
24.91 0.0
24.92 4.674e-05
24.93 4.906e-05
24.94 5.196e-05
24.95 5.518e-05
24.96 5.883e-05
24.97 6.215e-05
24.98 6.592e-05
24.99 7.01e-05
25.0 7.44e-05
25.01 7.997e-05
25.02 8.519e-05
25.03 9.091e-05
25.04 9.713e-05
25.05 0.0001046
25.06 0.0001103
25.07 0.000118
25.08 0.0001258
25.09 0.0001347
25.1 0.0001432
25.11 0.0001532
25.12 0.0
25.14 0.0
25.15 4.286e-05
25.16 4.228e-05
25.17 4.239e-05
25.18 4.968e-05
25.19 6.479e-05
25.2 8.182e-05
25.21 9.825e-05
25.22 0.0001148
25.23 0.000132
25.24 0.0001466
25.25 0.0001558
25.26 0.0001599
25.27 0.0001612
25.28 0.0001625
25.29 0.0001642
25.3 0.0001661
25.31 0.0001666
25.32 0.0001621
25.33 0.0001532
25.34 0.0001433
25.35 0.0001326
25.36 0.0001181
25.37 0.0001012
25.38 9.522e-05
25.39 0.0001098
25.4 0.0001297
25.41 0.0001443
25.42 0.0001541
25.43 0.0001624
25.44 0.0001712
25.45 0.0001811
25.46 0.0001915
25.47 0.0002009
25.48 0.0002085
25.49 0.0002145
25.5 0.0002198
25.51 0.0002252
25.52 0.0002287
25.53 0.0002323
25.54 0.0002354
25.55 0.0002373
25.56 0.000239
25.57 0.0002385
25.58 0.000237
25.59 0.0002341
25.6 0.0002301
25.61 0.0002263
25.62 0.000223
25.63 0.0002201
25.64 0.0002173
25.65 0.0002145
25.66 0.0002121
25.67 0.0002095
25.68 0.0002083
25.69 0.0002068
25.7 0.0002039
25.71 0.0001978
25.72 0.00019
25.73 0.0001823
25.74 0.0001745
25.75 0.0001664
25.76 0.0001577
25.77 0.0001526
25.78 0.0001534
25.79 0.0001566
25.8 0.000159
25.81 0.0001603
25.82 0.0001622
25.83 0.000164
25.84 0.0001649
25.85 0.0001641
25.86 0.0001624
25.87 0.0001612
25.88 0.0001603
25.89 0.000159
25.9 0.000158
25.91 0.0001561
25.92 0.0001532
25.93 0.0001499
25.94 0.0001468
25.95 0.0001434
25.96 0.0001405
25.97 0.0001384
25.98 0.0001368
25.99 0.0001363
26.0 0.0001359
26.01 0.0001351
26.02 0.0001348
26.03 0.0001352
26.04 0.000136
26.05 0.0001376
26.06 0.0001395
26.07 0.0001421
26.08 0.0001459
26.09 0.0001487
26.1 0.0001499
26.11 0.0001483
26.12 0.0001448
26.13 0.0001404
26.14 0.000135
26.15 0.0001293
26.16 0.0001234
26.17 0.0001176
26.18 0.0001124
26.19 0.0001079
26.2 0.0001035
26.21 9.912e-05
26.22 9.294e-05
26.23 8.551e-05
26.24 8.05e-05
26.25 8.171e-05
26.26 8.775e-05
26.27 9.408e-05
26.28 9.87e-05
26.29 0.0001033
26.3 0.0001083
26.31 0.0001126
26.32 0.0001146
26.33 0.0001145
26.34 0.0001144
26.35 0.0001143
26.36 0.0001147
26.37 0.0001151
26.38 0.0001146
26.39 0.0001159
26.4 0.0001174
26.41 0.0001198
26.42 0.0001213
26.43 0.0001227
26.44 0.000124
26.45 0.0001234
26.46 0.000121
26.47 0.0001159
26.48 0.0001084
26.49 9.937e-05
26.5 9.015e-05
26.51 7.99e-05
26.52 6.808e-05
26.53 5.401e-05
26.54 0.0
26.55 0.0001431
26.56 0.000144
26.57 0.0001454
26.58 0.000147
26.59 0.0001486
26.6 0.0001493
26.61 0.0001501
26.62 0.0001517
26.63 0.0001531
26.64 0.0001539
26.65 0.0001555
26.66 0.0
26.67 0.0
26.68 4.305e-05
26.69 4.503e-05
26.7 4.688e-05
26.71 4.966e-05
26.72 5.281e-05
26.73 5.381e-05
26.74 5.032e-05
26.75 4.215e-05
26.76 0.0
26.77 0.0
26.78 0.0001502
26.79 0.0001495
26.8 0.0001496
26.81 0.0001489
26.82 0.0001482
26.83 0.0001469
26.84 0.0001447
26.85 0.0001432
26.86 0.000141
26.87 0.0001395
26.88 0.0001375
26.89 0.0
26.91 0.0
26.92 4.424e-05
26.93 4.863e-05
26.94 5.28e-05
26.95 5.69e-05
26.96 6.116e-05
26.97 6.552e-05
26.98 6.965e-05
26.99 7.35e-05
27.0 7.636e-05
27.01 7.695e-05
27.02 7.712e-05
27.03 7.623e-05
27.04 7.465e-05
27.05 7.274e-05
27.06 7.062e-05
27.07 6.857e-05
27.08 6.658e-05
27.09 6.454e-05
27.1 6.243e-05
27.11 6.038e-05
27.12 5.827e-05
27.13 5.62e-05
27.14 5.419e-05
27.15 5.214e-05
27.16 5.009e-05
27.17 4.802e-05
27.18 4.407e-05
27.19 0.0
